Stress;Strain
637374.4762;0.000094572
657878.6667;0.0000999
676637.9048;0.000104562
687108;0.000111222
700632;0.000117882
718649.5238;0.000122544
734223.9619;0.000129204
749798.4;0.000135864
765372.8381;0.000141858
780947.2762;0.000147186
796521.7143;0.00015318
812096.1524;0.00015984
827670.5905;0.000165834
843245.0286;0.000171828
858819.4667;0.000177156
874393.9048;0.000182484
889968.3429;0.000187812
905542.781;0.000193806
921117.219;0.000200466
936691.6571;0.000207792
952266.0952;0.00021312
967840.5333;0.00021978
983414.9714;0.00022644
998989.4095;0.000232434
1014563.848;0.000239094
1030138.286;0.000245088
1045712.724;0.000250416
1061287.162;0.000255744
1076861.6;0.000261072
1092436.038;0.000265734
1108010.476;0.000270396
1123584.914;0.000275724
1139159.352;0.000280386
1154733.79;0.00028638
1170308.229;0.000292374
1185882.667;0.000298368
1201457.105;0.000305028
1217031.543;0.000311688
1232605.981;0.000318348
1248180.419;0.000325674
1263754.857;0.000333
1279329.295;0.00033966
1294903.733;0.00034632
1310478.171;0.00035298
1326052.61;0.000358974
1341627.048;0.000365634
1357201.486;0.00037296
1372775.924;0.000380286
1388350.362;0.000386946
1403924.8;0.000393606
1419499.238;0.0003996
1435073.676;0.00040626
1450648.114;0.000413586
1466222.552;0.000420246
1481796.99;0.00042624
1497371.429;0.000433566
1512945.867;0.00043956
1528520.305;0.00044622
1544094.743;0.000454212
1559669.181;0.000462204
1575243.619;0.00046953
1590818.057;0.000477522
1606392.495;0.000484182
1621966.933;0.000490176
1637541.371;0.00049617
1653115.81;0.000502164
1668690.248;0.000508824
1684264.686;0.000514152
1699839.124;0.000520812
1715413.562;0.00052614
1730988;0.000530136
1746562.438;0.000534132
1762136.876;0.000538794
1777711.314;0.000543456
1793285.752;0.00054945
1808860.19;0.000554112
1824434.629;0.00055944
1840009.067;0.000565434
1855583.505;0.000571428
1871157.943;0.000578088
1886732.381;0.000584082
1902306.819;0.00058941
1917881.257;0.000595404
1933455.695;0.000601398
1949030.133;0.000608058
1964604.571;0.000614718
1980179.01;0.000622044
1995753.448;0.000630036
2011327.886;0.000638028
2026902.324;0.00064602
2042476.762;0.000653346
2058051.2;0.000662004
2073625.638;0.000670662
2089200.076;0.000678654
2104774.514;0.00068598
2120348.952;0.000694638
2135923.39;0.00070263
2151497.829;0.000710622
2167072.267;0.000718614
2182646.705;0.000726606
2198221.143;0.0007326
2213795.581;0.00073926
2229370.019;0.00074592
2244944.457;0.00075258
2260518.895;0.000759906
2276093.333;0.000767232
2291667.771;0.00077589
2307242.21;0.000783882
2322816.648;0.000790542
2338391.086;0.000797202
2353965.524;0.000803196
2369539.962;0.000809856
2385114.4;0.000816516
2400688.838;0.00082251
2416263.276;0.00082917
2431837.714;0.00083583
2447412.152;0.000843156
2462986.59;0.000851814
2478561.029;0.000860472
2494135.467;0.000868464
2509709.905;0.000876456
2525284.343;0.000883782
2540858.781;0.000891108
2556433.219;0.000898434
2572007.657;0.00090576
2587582.095;0.000911754
2603156.533;0.00091908
2618730.971;0.000927072
2634305.41;0.000937728
2649879.848;0.000948384
2665454.286;0.000960372
2681028.724;0.000969696
2696603.162;0.00097902
2712177.6;0.00098568
2727752.038;0.000991674
2743326.476;0.000997668
2758900.914;0.001004328
2774475.352;0.001011654
2790049.79;0.00101898
2805624.229;0.001026306
2821198.667;0.001032966
2836773.105;0.00103896
2852347.543;0.001043622
2867921.981;0.00104895
2883496.419;0.001053612
2899070.857;0.001056942
2914645.295;0.001060272
2930219.733;0.001064934
2945794.171;0.001069596
2961368.61;0.001074924
2976943.048;0.001080252
2992517.486;0.00108558
3008091.924;0.001091574
3023666.362;0.001097568
3039240.8;0.001103562
3054815.238;0.001109556
3070389.676;0.00111555
3085964.114;0.001120878
3101538.552;0.001126872
3117112.99;0.001134198
3132687.429;0.001141524
3148261.867;0.00114885
3163836.305;0.001157508
3179410.743;0.001164834
3194985.181;0.001172826
3210559.619;0.001181484
3226134.057;0.001189476
3241708.495;0.0011988
3257282.933;0.001207458
3272857.371;0.00121545
3288431.81;0.001222776
3304006.248;0.001230768
3319580.686;0.00123876
3335155.124;0.001246752
3350729.562;0.001254744
3366304;0.001262736
3381878.438;0.001269396
3397452.876;0.001276056
3413027.314;0.001283382
3428601.752;0.001289376
3444176.19;0.001296036
3459750.629;0.001304028
3475325.067;0.00131202
3490899.505;0.001319346
3506473.943;0.001326672
3522048.381;0.001333998
3537622.819;0.00134199
3553197.257;0.001349316
3568771.695;0.001355976
3584346.133;0.001361304
3599920.571;0.001367298
3615495.01;0.001373958
3631069.448;0.001379286
3646643.886;0.001384614
3662218.324;0.001390608
3677792.762;0.001397268
3693367.2;0.001404594
3708941.638;0.00141192
3724516.076;0.00141858
3740090.514;0.00142524
3755664.952;0.001432566
3771239.39;0.001437894
3786813.829;0.001444554
3802388.267;0.00145188
3817962.705;0.001457208
3833537.143;0.001463868
3849111.581;0.00146853
3864686.019;0.00147519
3880260.457;0.00148185
3895834.895;0.00148851
3911409.333;0.001495836
3926983.771;0.001502496
3942558.21;0.001510488
3958132.648;0.001517148
3973707.086;0.001523808
3989281.524;0.0015318
4004855.962;0.001539792
4020430.4;0.001547784
4036004.838;0.001555776
4051579.276;0.001563102
4067153.714;0.001571094
4082728.152;0.001579752
4098302.59;0.001587744
4113877.029;0.001596402
4129451.467;0.001603728
4145025.905;0.001610388
4160600.343;0.001617048
4176174.781;0.001621044
4191749.219;0.001626372
4207323.657;0.0016317
4222898.095;0.001637028
4238472.533;0.001642356
4254046.971;0.001645686
4269621.41;0.001649682
4285195.848;0.00165501
4300770.286;0.001661004
4316344.724;0.001666998
4331919.162;0.00167166
4347493.6;0.001676988
4363068.038;0.00168165
4378642.476;0.001687644
4394216.914;0.001693638
4409791.352;0.00170163
4425365.79;0.00170829
4440940.229;0.001716282
4456514.667;0.001725606
4472089.105;0.00173493
4487663.543;0.001742256
4503237.981;0.001750248
4518812.419;0.001759572
4534386.857;0.001767564
4549961.295;0.001774224
4565535.733;0.001779552
4581110.171;0.00178488
4596684.61;0.00179154
4612259.048;0.001798866
4627833.486;0.00180486
4643407.924;0.001810188
4658982.362;0.001815516
4674556.8;0.001820844
4690131.238;0.001826172
4705705.676;0.001830168
4721280.114;0.001835496
4736854.552;0.001839492
4752428.99;0.001844154
4768003.429;0.001849482
4783577.867;0.001855476
4799152.305;0.00186147
4814726.743;0.001866132
4830301.181;0.001870794
4845875.619;0.001876788
4861450.057;0.001882116
4877024.495;0.001886778
4892598.933;0.001893438
4908173.371;0.001900098
4923747.81;0.001906758
4939322.248;0.001912752
4954896.686;0.00191808
4970471.124;0.001923408
4986045.562;0.001930068
5001620;0.001936728
5017194.438;0.001943388
5032768.876;0.001950048
5048343.314;0.001955376
5063917.752;0.001960704
5079492.19;0.001966032
5095066.629;0.001972692
5110641.067;0.001978686
5126215.505;0.00198468
5141789.943;0.00199134
5157364.381;0.001997334
5172938.819;0.002003328
5188513.257;0.002009988
5204087.695;0.002017314
5219662.133;0.00202464
5235236.571;0.002030634
5250811.01;0.002037294
5266385.448;0.002042622
5281959.886;0.002048616
5297534.324;0.00205461
5313108.762;0.00206127
5328683.2;0.002068596
5344257.638;0.002075922
5359832.076;0.002083914
5375406.514;0.00209124
5390980.952;0.002099232
5406555.39;0.002107224
5422129.829;0.002115216
5437704.267;0.002123208
5453278.705;0.002129868
5468853.143;0.002136528
5484427.581;0.002143188
5500002.019;0.00214785
5515576.457;0.002152512
5531150.895;0.002157174
5546725.333;0.002161836
5562299.771;0.002167164
5577874.21;0.002172492
5593448.648;0.00217782
5609023.086;0.002183148
5624597.524;0.002188476
5640171.962;0.002193804
5655746.4;0.002199132
5671320.838;0.00220446
5686895.276;0.002210454
5702469.714;0.002216448
5718044.152;0.002223108
5733618.59;0.00222777
5749193.029;0.002233098
5764767.467;0.002240424
5780341.905;0.002246418
5795916.343;0.002253078
5811490.781;0.002259738
5827065.219;0.002267064
5842639.657;0.00227439
5858214.095;0.002282382
5873788.533;0.002290374
5889362.971;0.002299032
5904937.41;0.00230769
5920511.848;0.002315016
5936086.286;0.002321676
5951660.724;0.002328336
5967235.162;0.002334996
5982809.6;0.002343654
5998384.038;0.002352312
6013958.476;0.002360304
6029532.914;0.00236763
6045107.352;0.002375622
6060681.79;0.002383614
6076256.229;0.002391606
6091830.667;0.002399598
6107405.105;0.002406258
6122979.543;0.002412918
6138553.981;0.002418912
6154128.419;0.002425572
6169702.857;0.002431566
6185277.295;0.00243756
6200851.733;0.00244422
6216426.171;0.00245088
6232000.61;0.002458872
6247575.048;0.002466864
6263149.486;0.002474856
6278723.924;0.002481516
6294298.362;0.002488176
6309872.8;0.002494836
6325447.238;0.00250083
6341021.676;0.002508822
6356596.114;0.002516148
6372170.552;0.002523474
6387744.99;0.0025308
6403319.429;0.002538792
6418893.867;0.002546118
6434468.305;0.002552778
6450042.743;0.002559438
6465617.181;0.002566098
6481191.619;0.002573424
6496766.057;0.002581416
6512340.495;0.00259074
6527914.933;0.002600064
6543489.371;0.002609388
6559063.81;0.002618712
6574638.248;0.00262737
6590212.686;0.002634696
6605787.124;0.002642022
6621361.562;0.00265068
6636936;0.00265734
6652510.438;0.002663334
6668084.876;0.002671326
6683659.314;0.002678652
6699233.752;0.002685312
6714808.19;0.002692638
6730382.629;0.002699298
6745957.067;0.002705292
6761531.505;0.002709954
6777105.943;0.002715282
6792680.381;0.00272061
6808254.819;0.002726604
6823829.257;0.002733264
6839403.695;0.002739258
6854978.133;0.002744586
6870552.571;0.00275058
6886127.01;0.002755908
6901701.448;0.002761902
6917275.886;0.00276723
6932850.324;0.002772558
6948424.762;0.002777886
6963999.2;0.002783214
6979573.638;0.002789208
6995148.076;0.002795202
7010722.514;0.002801196
7026296.952;0.00280719
7041871.39;0.00281385
7057445.829;0.002821842
7073020.267;0.002829834
7088594.705;0.002837826
7104169.143;0.002845818
7119743.581;0.002854476
7135318.019;0.002863134
7150892.457;0.002871792
7166466.895;0.002881116
7182041.333;0.002891106
7197615.771;0.00290043
7213190.21;0.002909088
7228764.648;0.002917746
7244339.086;0.00292707
7259913.524;0.002935062
7275487.962;0.002942388
7291062.4;0.002949048
7306636.838;0.002955708
7322211.276;0.002961702
7337785.714;0.002967696
7353360.152;0.002973024
7368934.59;0.002979018
7384509.029;0.002984346
7400083.467;0.002989674
7415657.905;0.002995002
7431232.343;0.00300033
7446806.781;0.003005658
7462381.219;0.003011652
7477955.657;0.003017646
7493530.095;0.003024306
7509104.533;0.003029634
7524678.971;0.003035628
7540253.41;0.003042288
7555827.848;0.003049614
7571402.286;0.003056274
7586976.724;0.0030636
7602551.162;0.003070926
7618125.6;0.003079584
7633700.038;0.003087576
7649274.476;0.003095568
7664848.914;0.00310356
7680423.352;0.003112218
7695997.79;0.003118212
7711572.229;0.003124872
7727146.667;0.003132864
7742721.105;0.003139524
7758295.543;0.003145518
7773869.981;0.003151512
7789444.419;0.003157506
7805018.857;0.003164832
7820593.295;0.003174156
7836167.733;0.003182148
7851742.171;0.003188808
7867316.61;0.003195468
7882891.048;0.003202128
7898465.486;0.003207456
7914039.924;0.003214116
7929614.362;0.003220776
7945188.8;0.003228768
7960763.238;0.00323676
7976337.676;0.003246084
7991912.114;0.003254076
8007486.552;0.003260736
8023060.99;0.003268062
8038635.429;0.003274722
8054209.867;0.003280716
8069784.305;0.003286044
8085358.743;0.003291372
8100933.181;0.003296034
8116507.619;0.003301362
8132082.057;0.00330669
8147656.495;0.003311352
8163230.933;0.003317346
8178805.371;0.003322008
8194379.81;0.003327336
8209954.248;0.003331332
8225528.686;0.003335994
8241103.124;0.003341322
8256677.562;0.00334665
8272252;0.003351978
8287826.438;0.003357972
8303400.876;0.003365298
8318975.314;0.003373956
8334549.752;0.003381948
8350124.19;0.003388608
8365698.629;0.003397266
8381273.067;0.003404592
8396847.505;0.003411252
8412421.943;0.003417912
8427996.381;0.003423906
8443570.819;0.0034299
8459145.257;0.003435894
8474719.695;0.00344322
8490294.133;0.003448548
8505868.571;0.003455208
8521443.01;0.003460536
8537017.448;0.003467196
8552591.886;0.003471858
8568166.324;0.003477852
8583740.762;0.003483846
8599315.2;0.00348984
8614889.638;0.003495168
8630464.076;0.003500496
8646038.514;0.00350649
8661612.952;0.00351315
8677187.39;0.003518478
8692761.829;0.003524472
8708336.267;0.003530466
8723910.705;0.003537126
8739485.143;0.00354312
8755059.581;0.00354978
8770634.019;0.003555108
8786208.457;0.003561768
8801782.895;0.003568428
8817357.333;0.003575088
8832931.771;0.003581082
8848506.21;0.003587076
8864080.648;0.003592404
8879655.086;0.003597066
8895229.524;0.003601728
8910803.962;0.003607056
8926378.4;0.003612384
8941952.838;0.003619044
8957527.276;0.003625704
8973101.714;0.003632364
8988676.152;0.003637692
9004250.59;0.003643686
9019825.029;0.003650346
9035399.467;0.003657006
9050973.905;0.003663666
9066548.343;0.003670326
9082122.781;0.003677652
9097697.219;0.003684312
9113271.657;0.003690972
9128846.095;0.003696966
9144420.533;0.003703626
9159994.971;0.003710286
9175569.41;0.003717612
9191143.848;0.003723606
9206718.286;0.003730932
9222292.724;0.003737592
9237867.162;0.003744252
9253441.6;0.003751578
9269016.038;0.003757572
9284590.476;0.003764232
9300164.914;0.003770226
9315739.352;0.003777552
9331313.79;0.003784878
9346888.229;0.003792204
9362462.667;0.00379953
9378037.105;0.00380619
9393611.543;0.003812184
9409185.981;0.003817512
9424760.419;0.00382284
9440334.857;0.0038295
9455909.295;0.003835494
9471483.733;0.003841488
9487058.171;0.003847482
9502632.61;0.003853476
9518207.048;0.003858804
9533781.486;0.003864798
9549355.924;0.00386946
9564930.362;0.003874122
9580504.8;0.003878784
9596079.238;0.003884778
9611653.676;0.00388944
9627228.114;0.003894102
9642802.552;0.00389943
9658376.99;0.003904092
9673951.429;0.00390942
9689525.867;0.00391608
9705100.305;0.003923406
9720674.743;0.003930732
9736249.181;0.003938058
9751823.619;0.003945384
9767398.057;0.003953376
9782972.495;0.003961368
9798546.933;0.00396936
9814121.371;0.003978018
9829695.81;0.003985344
9845270.248;0.003993336
9860844.686;0.004001328
9876419.124;0.00400932
9891993.562;0.004016646
9907568;0.004024638
9923142.438;0.004031964
9938716.876;0.004038624
9954291.314;0.004045284
9969865.752;0.004051278
9985440.19;0.00405927
10001014.63;0.004067262
10016589.07;0.004075254
10032163.5;0.00408258
10047737.94;0.004091238
10063312.38;0.004098564
10078886.82;0.004107222
10094461.26;0.004114548
10110035.7;0.00412254
10125610.13;0.004130532
10141184.57;0.004137858
10156759.01;0.004146516
10172333.45;0.004153176
10187907.89;0.00415917
10203482.32;0.004165164
10219056.76;0.004171158
10234631.2;0.004177152
10250205.64;0.00418248
10265780.08;0.00418914
10281354.51;0.004195134
10296928.95;0.004201794
10312503.39;0.00420912
10328077.83;0.00421578
10343652.27;0.004223772
10359226.7;0.004231764
10374801.14;0.004239756
10390375.58;0.004247748
10405950.02;0.00425574
10421524.46;0.004263732
10437098.9;0.004270392
10452673.33;0.004277718
10468247.77;0.004285044
10483822.21;0.004293702
10499396.65;0.004301694
10514971.09;0.004309686
10530545.52;0.004317678
10546119.96;0.00432567
10561694.4;0.004333662
10577268.84;0.004340988
10592843.28;0.004347648
10608417.71;0.004354974
10623992.15;0.004361634
10639566.59;0.004367628
10655141.03;0.004374954
10670715.47;0.004381614
10686289.9;0.004388274
10701864.34;0.004394268
10717438.78;0.004400262
10733013.22;0.004406256
10748587.66;0.004412916
10764162.1;0.00441891
10779736.53;0.004424238
10795310.97;0.004427568
10810885.41;0.00443223
10826459.85;0.004437558
10842034.29;0.004444218
10857608.72;0.004450878
10873183.16;0.004457538
10888757.6;0.004464864
10904332.04;0.004471524
10919906.48;0.004478184
10935480.91;0.004484178
10951055.35;0.004491504
10966629.79;0.004499496
10982204.23;0.00450882
10997778.67;0.004518144
11013353.1;0.004526802
11028927.54;0.00453546
11044501.98;0.004544118
11060076.42;0.004552776
11075650.86;0.004561434
11091225.3;0.00456876
11106799.73;0.004576086
11122374.17;0.004584078
11137948.61;0.004591404
11153523.05;0.00459873
11169097.49;0.004607388
11184671.92;0.004614714
11200246.36;0.004621374
11215820.8;0.004627368
11231395.24;0.004633362
11246969.68;0.004640022
11262544.11;0.004646682
11278118.55;0.004652676
11293692.99;0.004658004
11309267.43;0.00466533
11324841.87;0.004672656
11340416.3;0.004679316
11355990.74;0.00468531
11371565.18;0.004691304
11387139.62;0.004697964
11402714.06;0.004703292
11418288.5;0.004709286
11433862.93;0.004714614
11449437.37;0.004719276
11465011.81;0.004723938
11480586.25;0.004729266
11496160.69;0.004735926
11511735.12;0.00474192
11527309.56;0.004747914
11542884;0.004754574
11558458.44;0.004761234
11574032.88;0.004767228
11589607.31;0.004774554
11605181.75;0.004782546
11620756.19;0.004791204
11636330.63;0.004799862
11651905.07;0.004807188
11667479.5;0.00481518
11683053.94;0.004823172
11698628.38;0.00483183
11714202.82;0.004839822
11729777.26;0.004847814
11745351.7;0.00485514
11760926.13;0.0048618
11776500.57;0.004871124
11792075.01;0.004879782
11807649.45;0.00488844
11823223.89;0.004897098
11838798.32;0.004904424
11854372.76;0.004911084
11869947.2;0.004917078
11885521.64;0.004923072
11901096.08;0.004930398
11916670.51;0.004937058
11932244.95;0.004943718
11947819.39;0.004949046
11963393.83;0.004954374
11978968.27;0.004959036
11994542.7;0.004963032
12010117.14;0.004966362
12025691.58;0.004970358
12041266.02;0.004975686
12056840.46;0.004981014
12072414.9;0.004985676
12087989.33;0.004990338
12103563.77;0.004997664
12119138.21;0.005002992
12134712.65;0.00500832
12150287.09;0.005013648
12165861.52;0.005019642
12181435.96;0.005025636
12197010.4;0.005030964
12212584.84;0.005036958
12228159.28;0.005043618
12243733.71;0.005050944
12259308.15;0.005058936
12274882.59;0.005066928
12290457.03;0.005074254
12306031.47;0.005079582
12321605.9;0.00508491
12337180.34;0.005090904
12352754.78;0.005096232
12368329.22;0.00510156
12383903.66;0.005106222
12399478.1;0.005112216
12415052.53;0.005120208
12430626.97;0.005126202
12446201.41;0.005132862
12461775.85;0.005138856
12477350.29;0.005146848
12492924.72;0.005154174
12508499.16;0.0051615
12524073.6;0.005168826
12539648.04;0.005175486
12555222.48;0.005182146
12570796.91;0.005187474
12586371.35;0.005193468
12601945.79;0.005200128
12617520.23;0.005206122
12633094.67;0.005210784
12648669.1;0.005216112
12664243.54;0.00522144
12679817.98;0.005226102
12695392.42;0.00523143
12710966.86;0.005236758
12726541.3;0.005242086
12742115.73;0.005247414
12757690.17;0.00525474
12773264.61;0.005260734
12788839.05;0.005265396
12804413.49;0.005272056
12819987.92;0.00527805
12835562.36;0.005284044
12851136.8;0.005290038
12866711.24;0.005297364
12882285.68;0.005303358
12897860.11;0.005310684
12913434.55;0.00531801
12929008.99;0.00532467
12944583.43;0.005330664
12960157.87;0.005336658
12975732.3;0.005342652
12991306.74;0.005349312
13006881.18;0.005355972
13022455.62;0.005362632
13038030.06;0.00536796
13053604.5;0.00537462
13069178.93;0.005381946
13084753.37;0.005389938
13100327.81;0.00539793
13115902.25;0.005405922
13131476.69;0.005413248
13147051.12;0.005420574
13162625.56;0.005428566
13178200;0.005435892
13193774.44;0.005441886
13209348.88;0.00544788
13224923.31;0.00545454
13240497.75;0.005460534
13256072.19;0.005466528
13271646.63;0.005472522
13287221.07;0.005478516
